! File created by WinPLOTR 
! INITIAL .UXD FILE: E:\Double perovskite - Bilbao\La2CoMnO6\Desy\DesyData 09-01-14\Data\ModifiedFiles\La2CoMnO6Jan2014 [007].UXD
! SCAN #:               1
! FULLPROF format:   INSTRM_10 (X,Y,sig)
! DATE:              '11-Jan-2014 09:19:29'
! SAMPLE:            'La2CoMnO6Jan2014'
! DIFFRACTOMETER:    
! WAVE (A):             1.54060
! TEMPERATURE         179.99
! NUMBER OF DATA:      1576
! 
        15.00000      377.00000       19.41649
        15.06667      495.00000       22.24860
        15.13334      428.00000       20.68816
        15.20000      382.00000       19.54482
        15.26667      312.00000       17.66352
        15.33334      547.00000       23.38803
        15.40001      277.00000       16.64332
        15.46668      534.00000       23.10844
        15.53334      570.00000       23.87467
        15.60001      719.00000       26.81417
        15.66668      884.00000       29.73214
        15.73335      730.00000       27.01851
        15.80002      754.00000       27.45906
        15.86668      806.00000       28.39014
        15.93335      903.00000       30.04996
        16.00002      766.00000       27.67670
        16.06669      740.00000       27.20294
        16.13336     1007.00000       31.73326
        16.20002      854.00000       29.22328
        16.26669      954.00000       30.88689
        16.33336     1024.00000       32.00000
        16.40003     1026.00000       32.03123
        16.46670      878.00000       29.63107
        16.53336      996.00000       31.55947
        16.60003      955.00000       30.90307
        16.66670      685.00000       26.17250
        16.73337      986.00000       31.40064
        16.80004      641.00000       25.31798
        16.86670      638.00000       25.25866
        16.93337      512.00000       22.62742
        17.00004      451.00000       21.23676
        17.06671      363.00000       19.05256
        17.13338      520.00000       22.80351
        17.20004      574.00000       23.95830
        17.26671      311.00000       17.63519
        17.33338      439.00000       20.95233
        17.40005      393.00000       19.82423
        17.46672      429.00000       20.71231
        17.53338      397.00000       19.92486
        17.60005      799.00000       28.26659
        17.66672      544.00000       23.32381
        17.73339      563.00000       23.72762
        17.80006      524.00000       22.89105
        17.86672      841.00000       29.00000
        17.93339      555.00000       23.55844
        18.00006      670.00000       25.88436
        18.06673      919.00000       30.31501
        18.13340      755.00000       27.47726
        18.20006      645.00000       25.39685
        18.26673      926.00000       30.43025
        18.33340      853.00000       29.20616
        18.40007      815.00000       28.54820
        18.46674      694.00000       26.34388
        18.53340      672.00000       25.92296
        18.60007      926.00000       30.43025
        18.66674      541.00000       23.25941
        18.73341      830.00000       28.80972
        18.80008      771.00000       27.76689
        18.86674      735.00000       27.11088
        18.93341      742.00000       27.23968
        19.00008      922.00000       30.36445
        19.06675      979.00000       31.28897
        19.13342      696.00000       26.38181
        19.20008      757.00000       27.51363
        19.26675      839.00000       28.96550
        19.33342      910.00000       30.16621
        19.40009      752.00000       27.42262
        19.46675      932.00000       30.52868
        19.53342      932.00000       30.52868
        19.60009      847.00000       29.10326
        19.66676      710.00000       26.64582
        19.73343     1031.00000       32.10919
        19.80010      653.00000       25.55387
        19.86676      638.00000       25.25866
        19.93343      332.00000       18.22087
        20.00010      402.00000       20.04994
        20.06677      552.00000       23.49468
        20.13344      483.00000       21.97726
        20.20010      404.00000       20.09975
        20.26677      405.00000       20.12461
        20.33344      403.00000       20.07486
        20.40011      260.00000       16.12452
        20.46678      596.00000       24.41311
        20.53344      373.00000       19.31321
        20.60011      668.00000       25.84570
        20.66678      446.00000       21.11871
        20.73345      543.00000       23.30236
        20.80012      383.00000       19.57038
        20.86678      537.00000       23.17326
        20.93345      805.00000       28.37252
        21.00012      555.00000       23.55844
        21.06679      719.00000       26.81417
        21.13346      771.00000       27.76689
        21.20012      581.00000       24.10394
        21.26679      562.00000       23.70654
        21.33346      469.00000       21.65641
        21.40013      598.00000       24.45404
        21.46679      641.00000       25.31798
        21.53346      499.00000       22.33831
        21.60013      672.00000       25.92296
        21.66680      665.00000       25.78759
        21.73347      686.00000       26.19160
        21.80014      758.00000       27.53180
        21.86680      596.00000       24.41311
        21.93347      666.00000       25.80698
        22.00014      790.00000       28.10694
        22.06681      813.00000       28.51315
        22.13348      649.00000       25.47548
        22.20014      780.00000       27.92848
        22.26681      669.00000       25.86503
        22.33348      864.00000       29.39388
        22.40015      917.00000       30.28201
        22.46682     1012.00000       31.81195
        22.53348     1147.00000       33.86739
        22.60015     1409.00000       37.53665
        22.66682     2088.00000       45.69464
        22.73349     2403.00000       49.02040
        22.80016     2762.00000       52.55473
        22.86682     3702.00000       60.84406
        22.93349     5172.00000       71.91662
        23.00016     4817.00000       69.40461
        23.06683     2661.00000       51.58488
        23.13350     1234.00000       35.12834
        23.20016     1023.00000       31.98437
        23.26683      764.00000       27.64055
        23.33350      710.00000       26.64582
        23.40017      698.00000       26.41969
        23.46684      649.00000       25.47548
        23.53350      514.00000       22.67157
        23.60017      560.00000       23.66432
        23.66684      440.00000       20.97618
        23.73351      617.00000       24.83949
        23.80017      476.00000       21.81742
        23.86684      546.00000       23.36664
        23.93351      460.00000       21.44761
        24.00018      588.00000       24.24871
        24.06685      369.00000       19.20937
        24.13352      413.00000       20.32240
        24.20018      447.00000       21.14237
        24.26685      553.00000       23.51595
        24.33352      581.00000       24.10394
        24.40019      519.00000       22.78157
        24.46686      564.00000       23.74868
        24.53352      451.00000       21.23676
        24.60019      691.00000       26.28688
        24.66686      574.00000       23.95830
        24.73353      744.00000       27.27636
        24.80020      444.00000       21.07131
        24.86686      533.00000       23.08679
        24.93353      435.00000       20.85665
        25.00020      530.00000       23.02173
        25.06687      436.00000       20.88061
        25.13354      487.00000       22.06808
        25.20020      654.00000       25.57342
        25.26687      502.00000       22.40536
        25.33354      438.00000       20.92845
        25.40021      450.00000       21.21320
        25.46688      582.00000       24.12468
        25.53354      662.00000       25.72936
        25.60021      403.00000       20.07486
        25.66688      631.00000       25.11971
        25.73355      577.00000       24.02082
        25.80021      614.00000       24.77902
        25.86688      539.00000       23.21637
        25.93355      467.00000       21.61018
        26.00022      658.00000       25.65151
        26.06689      720.00000       26.83282
        26.13355      727.00000       26.96294
        26.20022      566.00000       23.79075
        26.26689      612.00000       24.73863
        26.33356      713.00000       26.70206
        26.40023      512.00000       22.62742
        26.46690      633.00000       25.15949
        26.53356      575.00000       23.97916
        26.60023      606.00000       24.61707
        26.66690      536.00000       23.15167
        26.73357      746.00000       27.31300
        26.80024      490.00000       22.13594
        26.86690      627.00000       25.03997
        26.93357      454.00000       21.30728
        27.00024      737.00000       27.14774
        27.06691      569.00000       23.85372
        27.13358      680.00000       26.07681
        27.20024      633.00000       25.15949
        27.26691      501.00000       22.38303
        27.33358      419.00000       20.46949
        27.40025      464.00000       21.54066
        27.46692      419.00000       20.46949
        27.53358      457.00000       21.37756
        27.60025      467.00000       21.61018
        27.66692      561.00000       23.68544
        27.73359      619.00000       24.87971
        27.80025      319.00000       17.86057
        27.86692      458.00000       21.40093
        27.93359      656.00000       25.61250
        28.00026      474.00000       21.77154
        28.06693      552.00000       23.49468
        28.13359      436.00000       20.88061
        28.20026      548.00000       23.40940
        28.26693      496.00000       22.27106
        28.33360      622.00000       24.93993
        28.40027      543.00000       23.30236
        28.46694      632.00000       25.13961
        28.53360      518.00000       22.75961
        28.60027      501.00000       22.38303
        28.66694      573.00000       23.93742
        28.73361      597.00000       24.43358
        28.80028      538.00000       23.19483
        28.86694      555.00000       23.55844
        28.93361      365.00000       19.10497
        29.00028      508.00000       22.53885
        29.06695      565.00000       23.76973
        29.13362      544.00000       23.32381
        29.20028      718.00000       26.79552
        29.26695      655.00000       25.59297
        29.33362      534.00000       23.10844
        29.40029      490.00000       22.13594
        29.46696      617.00000       24.83949
        29.53362      501.00000       22.38303
        29.60029      412.00000       20.29778
        29.66696      493.00000       22.20360
        29.73363      505.00000       22.47220
        29.80029      614.00000       24.77902
        29.86696      561.00000       23.68544
        29.93363      606.00000       24.61707
        30.00030      599.00000       24.47448
        30.06697      610.00000       24.69818
        30.13363      520.00000       22.80351
        30.20030      547.00000       23.38803
        30.26697      622.00000       24.93993
        30.33364      508.00000       22.53885
        30.40031      528.00000       22.97825
        30.46697      475.00000       21.79449
        30.53364      690.00000       26.26785
        30.60031      617.00000       24.83949
        30.66698      657.00000       25.63201
        30.73365      668.00000       25.84570
        30.80032      534.00000       23.10844
        30.86698      737.00000       27.14774
        30.93365      604.00000       24.57641
        31.00032      600.00000       24.49490
        31.06699      588.00000       24.24871
        31.13366      609.00000       24.67793
        31.20032      611.00000       24.71841
        31.26699      628.00000       25.05993
        31.33366      599.00000       24.47448
        31.40033      707.00000       26.58947
        31.46700      777.00000       27.87472
        31.53366      835.00000       28.89637
        31.60033      787.00000       28.05352
        31.66700      959.00000       30.96773
        31.73367      971.00000       31.16087
        31.80033     1220.00000       34.92850
        31.86700     1508.00000       38.83298
        31.93367     1945.00000       44.10215
        32.00034     2413.00000       49.12230
        32.06701     4084.00000       63.90618
        32.13367     5860.00000       76.55064
        32.20034     8172.00000       90.39912
        32.26701    10910.00000      104.45094
        32.33368    14590.00000      120.78907
        32.40035    22232.00000      149.10399
        32.46701    27689.00000      166.40012
        32.53368    25887.00000      160.89438
        32.60035    21994.00000      148.30374
        32.66702    19790.00000      140.67694
        32.73369    18948.00000      137.65173
        32.80035    20751.00000      144.05208
        32.86702    22506.00000      150.02000
        32.93369    16102.00000      126.89365
        33.00036     8631.00000       92.90318
        33.06703     4362.00000       66.04544
        33.13369     2702.00000       51.98077
        33.20036     1857.00000       43.09292
        33.26703     1481.00000       38.48376
        33.33370     1338.00000       36.57868
        33.40037     1160.00000       34.05877
        33.46703     1117.00000       33.42155
        33.53370      954.00000       30.88689
        33.60037      780.00000       27.92848
        33.66704      848.00000       29.12044
        33.73371      672.00000       25.92296
        33.80037      656.00000       25.61250
        33.86704      512.00000       22.62742
        33.93371      679.00000       26.05763
        34.00038      504.00000       22.44994
        34.06705      426.00000       20.63977
        34.13372      663.00000       25.74879
        34.20038      557.00000       23.60085
        34.26705      567.00000       23.81176
        34.33372      559.00000       23.64318
        34.40039      612.00000       24.73863
        34.46706      592.00000       24.33105
        34.53372      571.00000       23.89561
        34.60039      510.00000       22.58318
        34.66706      530.00000       23.02173
        34.73373      580.00000       24.08319
        34.80040      518.00000       22.75961
        34.86706      638.00000       25.25866
        34.93373      575.00000       23.97916
        35.00040      383.00000       19.57038
        35.06707      502.00000       22.40536
        35.13374      536.00000       23.15167
        35.20040      352.00000       18.76166
        35.26707      505.00000       22.47220
        35.33374      433.00000       20.80865
        35.40041      481.00000       21.93171
        35.46708      440.00000       20.97618
        35.53374      405.00000       20.12461
        35.60041      561.00000       23.68544
        35.66708      621.00000       24.91987
        35.73375      511.00000       22.60531
        35.80042      518.00000       22.75961
        35.86708      416.00000       20.39608
        35.93375      509.00000       22.56103
        36.00042      310.00000       17.60682
        36.06709      559.00000       23.64318
        36.13375      394.00000       19.84943
        36.20042      484.00000       22.00000
        36.26709      480.00000       21.90890
        36.33376      526.00000       22.93469
        36.40042      358.00000       18.92089
        36.46709      544.00000       23.32381
        36.53376      533.00000       23.08679
        36.60043      422.00000       20.54264
        36.66710      465.00000       21.56386
        36.73377      547.00000       23.38803
        36.80043      392.00000       19.79899
        36.86710      549.00000       23.43075
        36.93377      489.00000       22.11334
        37.00044      369.00000       19.20937
        37.06711      583.00000       24.14539
        37.13377      440.00000       20.97618
        37.20044      594.00000       24.37212
        37.26711      570.00000       23.87467
        37.33378      446.00000       21.11871
        37.40045      425.00000       20.61553
        37.46711      532.00000       23.06512
        37.53378      473.00000       21.74856
        37.60045      503.00000       22.42766
        37.66712      365.00000       19.10497
        37.73379      577.00000       24.02082
        37.80045      508.00000       22.53885
        37.86712      457.00000       21.37756
        37.93379      521.00000       22.82542
        38.00046      459.00000       21.42429
        38.06713      481.00000       21.93171
        38.13379      533.00000       23.08679
        38.20046      810.00000       28.46050
        38.26713      862.00000       29.35984
        38.33380      839.00000       28.96550
        38.40047      931.00000       30.51229
        38.46714     1163.00000       34.10279
        38.53380      797.00000       28.23119
        38.60047      612.00000       24.73863
        38.66714      527.00000       22.95648
        38.73381      610.00000       24.69818
        38.80048      454.00000       21.30728
        38.86714      336.00000       18.33030
        38.93381      546.00000       23.36664
        39.00048      550.00000       23.45208
        39.06715      623.00000       24.95997
        39.13382      603.00000       24.55606
        39.20048      586.00000       24.20744
        39.26715      635.00000       25.19921
        39.33382      872.00000       29.52965
        39.40049      963.00000       31.03224
        39.46716     1022.00000       31.96873
        39.53382     1159.00000       34.04409
        39.60049     1402.00000       37.44329
        39.66716     1568.00000       39.59798
        39.73383     1994.00000       44.65423
        39.80050     2456.00000       49.55805
        39.86716     3229.00000       56.82429
        39.93383     3798.00000       61.62791
        40.00050     5548.00000       74.48490
        40.06717     8525.00000       92.33092
        40.13383     7735.00000       87.94885
        40.20050     5854.00000       76.51144
        40.26717     3643.00000       60.35727
        40.33384     2654.00000       51.51699
        40.40051     2135.00000       46.20606
        40.46717     1717.00000       41.43670
        40.53384     1710.00000       41.35215
        40.60051     1761.00000       41.96427
        40.66718     2060.00000       45.38722
        40.73384     2777.00000       52.69725
        40.80051     2658.00000       51.55579
        40.86718     2144.00000       46.30335
        40.93385     1467.00000       38.30144
        41.00052     1082.00000       32.89377
        41.06719      932.00000       30.52868
        41.13385      721.00000       26.85144
        41.20052      653.00000       25.55387
        41.26719      558.00000       23.62202
        41.33386      548.00000       23.40940
        41.40053      570.00000       23.87467
        41.46719      451.00000       21.23676
        41.53386      477.00000       21.84033
        41.60053      549.00000       23.43075
        41.66720      626.00000       25.01999
        41.73387      679.00000       26.05763
        41.80053      616.00000       24.81935
        41.86720      373.00000       19.31321
        41.93387      479.00000       21.88607
        42.00054      610.00000       24.69818
        42.06721      646.00000       25.41653
        42.13387      352.00000       18.76166
        42.20054      490.00000       22.13594
        42.26721      521.00000       22.82542
        42.33388      401.00000       20.02498
        42.40055      569.00000       23.85372
        42.46721      427.00000       20.66398
        42.53388      446.00000       21.11871
        42.60055      560.00000       23.66432
        42.66722      500.00000       22.36068
