# XYDATA igartucuel Sr2ScSbO6 @327C (600K) 2theta 
# INTER        1       1       0     0.100000
# TEMP       327.000      327.000      327.000
# d2b Date 12-Sep-08 Time 20:31:58 Run 051320 /d2bcal072.2d 51311>51320
# d2b Date 12-Sep-08 Time 20:31:58 Run 051320 /d2bcal072.2d 51311>51320
# Monitor/counts, Counting time/sec:        225000.00       225000.00
   0.0000             0.000       0.000
   0.0500             0.000       0.000
   0.1000             3.094       6.074
   0.1500            25.980      13.460
   0.2000            10.445       5.026
   0.2500            21.801       9.075
   0.3000            25.867       8.377
   0.3500            37.364       9.611
   0.4000            31.478       8.112
   0.4500            33.225       9.969
   0.5000            25.801       6.635
   0.5500            26.467       6.676
   0.6000            19.553       5.724
   0.6500            32.265       7.328
   0.7000            29.158       6.273
   0.7500            33.746       7.404
   0.8000            33.579       7.057
   0.8500            31.655       6.826
   0.9000            31.425       6.029
   0.9500            38.761       7.028
   1.0000            30.010       6.243
   1.0500            34.698       6.834
   1.1000            36.843       6.008
   1.1500            29.580       5.621
   1.2000            35.063       5.960
   1.2500            31.214       5.392
   1.3000            34.205       5.450
   1.3500            31.007       5.026
   1.4000            30.955       5.865
   1.4500            31.153       5.194
   1.5000            34.362       5.257
   1.5500            33.389       4.588
   1.6000            28.857       4.607
   1.6500            29.245       4.266
   1.7000            34.200       4.833
   1.7500            35.832       4.652
   1.8000            37.986       5.419
   1.8500            37.422       4.842
   1.9000            31.763       4.819
   1.9500            29.781       4.366
   2.0000            30.898       4.989
   2.0500            38.570       4.724
   2.1000            34.955       4.787
   2.1500            36.180       4.377
   2.2000            36.661       4.619
   2.2500            35.658       4.449
   2.3000            34.192       4.401
   2.3500            30.694       4.020
   2.4000            34.840       4.431
   2.4500            34.317       4.198
   2.5000            33.590       4.217
   2.5500            39.181       4.528
   2.6000            34.525       4.540
   2.6500            34.386       3.902
   2.7000            33.394       3.513
   2.7500            37.447       3.961
   2.8000            31.858       3.636
   2.8500            31.456       3.724
   2.9000            34.098       3.549
   2.9500            37.283       3.913
   3.0000            40.116       3.787
   3.0500            39.080       3.907
   3.1000            39.181       3.940
   3.1500            35.945       3.864
   3.2000            37.432       3.710
   3.2500            37.724       4.025
   3.3000            38.171       3.857
   3.3500            38.520       3.815
   3.4000            36.903       3.604
   3.4500            36.418       3.620
   3.5000            35.082       3.612
   3.5500            32.686       3.625
   3.6000            36.617       3.756
   3.6500            40.192       4.069
   3.7000            40.594       3.867
   3.7500            42.030       4.030
   3.8000            41.102       3.874
   3.8500            39.159       3.882
   3.9000            40.825       4.020
   3.9500            37.396       3.967
   4.0000            35.669       3.420
   4.0500            38.973       3.500
   4.1000            37.124       3.539
   4.1500            33.805       3.243
   4.2000            34.537       3.222
   4.2500            36.595       3.204
   4.3000            37.972       3.383
   4.3500            38.248       3.155
   4.4000            39.577       3.343
   4.4500            40.980       3.496
   4.5000            38.295       3.287
   4.5500            38.008       3.224
   4.6000            38.804       3.325
   4.6500            45.690       3.392
   4.7000            42.661       3.442
   4.7500            45.829       3.434
   4.8000            44.129       3.558
   4.8500            44.624       3.419
   4.9000            49.283       3.694
   4.9500            46.815       3.453
   5.0000            47.122       3.592
   5.0500            50.324       3.654
   5.1000            50.376       3.835
   5.1500            51.069       3.671
   5.2000            48.661       3.840
   5.2500            51.728       3.676
   5.3000            53.710       3.804
   5.3500            55.328       3.779
   5.4000            57.785       3.694
   5.4500            54.649       3.741
   5.5000            58.402       3.858
   5.5500            57.968       3.437
   5.6000            57.174       3.382
   5.6500            62.563       3.691
   5.7000            64.731       3.546
   5.7500            68.731       3.628
   5.8000            69.962       3.671
   5.8500            72.247       3.778
   5.9000            76.905       3.670
   5.9500            83.804       3.861
   6.0000            88.040       3.849
   6.0500            90.847       4.019
   6.1000            93.570       3.946
   6.1500            95.480       4.008
   6.2000           101.628       4.099
   6.2500           108.140       4.177
   6.3000           108.091       4.077
   6.3500           113.200       4.320
   6.4000           111.084       4.185
   6.4500           124.186       4.361
   6.5000           131.701       4.286
   6.5500           129.777       4.450
   6.6000           136.985       4.446
   6.6500           151.204       4.676
   6.7000           152.539       4.501
   6.7500           155.275       4.410
   6.8000           155.576       4.400
   6.8500           159.095       4.431
   6.9000           166.536       4.462
   6.9500           172.242       4.604
   7.0000           175.720       4.722
   7.0500           184.900       4.803
   7.1000           190.098       4.755
   7.1500           188.034       4.778
   7.2000           185.959       4.714
   7.2500           193.005       4.732
   7.3000           197.022       4.924
   7.3500           203.696       4.906
   7.4000           206.879       4.941
   7.4500           218.734       5.070
   7.5000           221.746       5.075
   7.5500           228.341       5.168
   7.6000           227.076       5.209
   7.6500           227.113       5.215
   7.7000           237.182       5.335
   7.7500           239.116       5.259
   7.8000           241.003       5.311
   7.8500           247.393       5.365
   7.9000           244.797       5.313
   7.9500           254.298       5.448
   8.0000           265.517       5.508
   8.0500           263.733       5.517
   8.1000           269.525       5.645
   8.1500           266.509       5.541
   8.2000           269.560       5.635
   8.2500           271.379       5.619
   8.3000           277.569       5.682
   8.3500           279.794       5.698
   8.4000           279.506       5.682
   8.4500           284.920       5.828
   8.5000           287.878       5.743
   8.5500           289.374       5.797
   8.6000           293.562       5.869
   8.6500           297.920       5.891
   8.7000           305.447       5.983
   8.7500           303.283       5.938
   8.8000           295.246       5.836
   8.8500           304.615       5.950
   8.9000           297.921       5.886
   8.9500           304.423       5.930
   9.0000           302.070       5.911
   9.0500           295.662       5.815
   9.1000           316.676       6.085
   9.1500           302.364       5.881
   9.2000           298.270       5.957
   9.2500           304.058       5.898
   9.3000           302.557       5.843
   9.3500           305.399       5.938
   9.4000           304.723       5.853
   9.4500           301.757       5.914
   9.5000           302.584       5.862
   9.5500           305.778       5.848
   9.6000           303.431       5.842
   9.6500           306.442       5.862
   9.7000           302.848       5.822
   9.7500           296.636       5.802
   9.8000           301.506       5.808
   9.8500           304.808       5.893
   9.9000           299.536       5.824
   9.9500           299.513       5.841
  10.0000           298.606       5.846
  10.0500           298.375       5.781
  10.1000           294.616       5.714
  10.1500           295.738       5.779
  10.2000           292.107       5.742
  10.2500           293.008       5.726
  10.3000           295.843       5.737
  10.3500           287.915       5.682
  10.4000           289.061       5.644
  10.4500           294.806       5.708
  10.5000           291.113       5.710
  10.5500           297.126       5.737
  10.6000           294.860       5.704
  10.6500           287.299       5.649
  10.7000           286.028       5.643
  10.7500           277.940       5.541
  10.8000           281.469       5.591
  10.8500           275.257       5.539
  10.9000           268.549       5.539
  10.9500           281.328       5.565
  11.0000           287.535       5.665
  11.0500           289.219       5.680
  11.1000           288.444       5.655
  11.1500           290.699       5.623
  11.2000           286.407       5.603
  11.2500           287.182       5.599
  11.3000           291.505       5.627
  11.3500           295.340       5.668
  11.4000           288.706       5.603
  11.4500           275.768       5.502
  11.5000           277.299       5.567
  11.5500           275.265       5.567
  11.6000           283.204       5.631
  11.6500           283.666       5.553
  11.7000           277.395       5.498
  11.7500           279.313       5.617
  11.8000           275.566       5.558
  11.8500           281.488       5.539
  11.9000           272.008       5.418
  11.9500           276.296       5.497
  12.0000           272.100       5.440
  12.0500           270.557       5.456
  12.1000           270.402       5.411
  12.1500           272.280       5.453
  12.2000           270.745       5.393
  12.2500           272.454       5.432
  12.3000           266.185       5.388
  12.3500           272.054       5.392
  12.4000           269.519       5.394
  12.4500           265.990       5.408
  12.5000           265.506       5.433
  12.5500           267.915       5.449
  12.6000           268.603       5.403
  12.6500           269.147       5.356
  12.7000           271.480       5.442
  12.7500           270.553       5.428
  12.8000           269.650       5.545
  12.8500           265.131       5.358
  12.9000           269.672       5.429
  12.9500           266.015       5.399
  13.0000           259.874       5.272
  13.0500           263.231       5.374
  13.1000           263.372       5.462
  13.1500           265.096       5.434
  13.2000           255.405       5.338
  13.2500           257.508       5.336
  13.3000           251.104       5.254
  13.3500           258.083       5.313
  13.4000           261.468       5.280
  13.4500           255.677       5.310
  13.5000           255.429       5.320
  13.5500           257.360       5.315
  13.6000           262.743       5.349
  13.6500           260.099       5.331
  13.7000           262.099       5.343
  13.7500           253.886       5.319
  13.8000           250.996       5.211
  13.8500           252.512       5.216
  13.9000           254.294       5.384
  13.9500           254.394       5.317
  14.0000           256.719       5.339
  14.0500           253.198       5.289
  14.1000           252.987       5.295
  14.1500           253.796       5.253
  14.2000           265.258       5.369
  14.2500           254.242       5.310
  14.3000           256.929       5.287
  14.3500           256.850       5.272
  14.4000           252.354       5.169
  14.4500           252.280       5.231
  14.5000           251.607       5.216
  14.5500           258.494       5.329
  14.6000           257.614       5.378
  14.6500           253.363       5.228
  14.7000           251.706       5.155
  14.7500           253.882       5.191
  14.8000           255.122       5.248
  14.8500           247.559       5.152
  14.9000           252.948       5.194
  14.9500           262.324       5.277
  15.0000           252.788       5.172
  15.0500           257.827       5.299
  15.1000           248.812       5.193
  15.1500           253.153       5.183
  15.2000           251.063       5.219
  15.2500           255.655       5.172
  15.3000           249.738       5.201
  15.3500           251.847       5.170
  15.4000           258.821       5.194
  15.4500           251.881       5.188
  15.5000           253.087       5.144
  15.5500           250.048       5.110
  15.6000           247.129       5.161
  15.6500           252.646       5.134
  15.7000           246.194       5.215
  15.7500           243.499       5.143
  15.8000           243.222       5.091
  15.8500           250.302       5.165
  15.9000           243.966       5.074
  15.9500           237.905       5.019
  16.0000           247.303       5.200
  16.0500           244.843       5.081
  16.1000           247.870       5.180
  16.1500           247.962       5.222
  16.2000           248.798       5.203
  16.2500           246.646       5.152
  16.3000           245.903       5.120
  16.3500           246.201       5.103
  16.4000           239.888       5.057
  16.4500           238.216       5.054
  16.5000           233.852       4.971
  16.5500           246.464       5.081
  16.6000           248.867       5.138
  16.6500           251.868       5.250
  16.7000           243.924       5.083
  16.7500           242.907       5.108
  16.8000           243.913       5.105
  16.8500           239.815       5.132
  16.9000           243.245       5.116
  16.9500           238.881       5.074
  17.0000           239.337       5.048
  17.0500           238.242       5.041
  17.1000           237.192       5.075
  17.1500           243.256       5.131
  17.2000           243.736       5.112
  17.2500           236.994       5.073
  17.3000           238.805       4.990
  17.3500           240.029       5.134
  17.4000           244.818       5.159
  17.4500           242.143       5.047
  17.5000           243.323       5.126
  17.5500           239.488       5.052
  17.6000           234.987       5.043
  17.6500           238.280       5.006
  17.7000           234.760       5.065
  17.7500           241.216       5.102
  17.8000           243.374       5.039
  17.8500           234.322       4.950
  17.9000           235.094       4.965
  17.9500           234.842       5.013
  18.0000           243.136       5.057
  18.0500           244.498       5.101
  18.1000           248.609       5.099
  18.1500           239.459       5.137
  18.2000           237.827       5.068
  18.2500           239.631       5.019
  18.3000           233.302       5.088
  18.3500           241.544       5.066
  18.4000           235.655       5.041
  18.4500           230.188       4.960
  18.5000           236.723       5.041
  18.5500           240.562       5.001
  18.6000           244.226       5.058
  18.6500           242.483       5.025
  18.7000           243.069       5.072
  18.7500           239.862       5.000
  18.8000           247.038       5.218
  18.8500           245.809       5.162
  18.9000           246.910       5.170
  18.9500           254.739       5.155
  19.0000           257.337       5.297
  19.0500           243.413       5.063
  19.1000           248.308       5.123
  19.1500           271.932       5.349
  19.2000           270.035       5.298
  19.2500           273.692       5.349
  19.3000           272.868       5.439
  19.3500           287.012       5.458
  19.4000           290.146       5.483
  19.4500           305.639       5.597
  19.5000           312.046       5.661
  19.5500           315.725       5.687
  19.6000           334.062       5.897
  19.6500           344.764       6.015
  19.7000           356.667       6.167
  19.7500           373.974       6.218
  19.8000           372.304       6.154
  19.8500           369.178       6.150
  19.9000           372.528       6.159
  19.9500           364.643       6.096
  20.0000           347.919       5.963
  20.0500           320.642       5.752
  20.1000           310.457       5.675
  20.1500           295.273       5.532
  20.2000           279.420       5.410
  20.2500           275.223       5.309
  20.3000           268.835       5.320
  20.3500           275.940       5.465
  20.4000           264.923       5.275
  20.4500           247.023       5.082
  20.5000           242.165       5.026
  20.5500           244.678       5.045
  20.6000           234.522       4.963
  20.6500           240.127       4.972
  20.7000           236.230       4.940
  20.7500           237.814       4.996
  20.8000           238.188       4.932
  20.8500           236.811       4.925
  20.9000           235.029       4.947
  20.9500           235.159       4.957
  21.0000           238.966       4.987
  21.0500           240.231       4.975
  21.1000           238.071       4.950
  21.1500           233.903       4.906
  21.2000           240.794       4.972
  21.2500           233.144       4.885
  21.3000           240.941       5.022
  21.3500           241.700       5.067
  21.4000           237.650       5.029
  21.4500           236.850       4.988
  21.5000           235.753       4.974
  21.5500           237.187       4.953
  21.6000           243.936       5.008
  21.6500           238.276       4.939
  21.7000           238.106       4.978
  21.7500           249.842       5.156
  21.8000           248.418       5.178
  21.8500           250.649       5.099
  21.9000           259.654       5.211
  21.9500           258.388       5.172
  22.0000           265.224       5.221
  22.0500           277.118       5.335
  22.1000           297.576       5.560
  22.1500           295.325       5.537
  22.2000           319.453       5.820
  22.2500           334.910       5.848
  22.3000           368.850       6.125
  22.3500           386.603       6.276
  22.4000           401.132       6.409
  22.4500           440.292       6.702
  22.5000           494.804       7.092
  22.5500           547.713       7.456
  22.6000           625.053       7.960
  22.6500           690.517       8.366
  22.7000           793.927       8.965
  22.7500           896.813       9.526
  22.8000           965.534       9.894
  22.8500          1007.983      10.107
  22.9000          1039.840      10.258
  22.9500          1045.517      10.284
  23.0000          1005.346      10.088
  23.0500           943.627       9.779
  23.1000           851.231       9.286
  23.1500           752.769       8.733
  23.2000           674.559       8.269
  23.2500           580.239       7.674
  23.3000           520.402       7.342
  23.3500           462.207       6.899
  23.4000           401.342       6.404
  23.4500           368.830       6.164
  23.5000           341.707       5.913
  23.5500           298.450       5.551
  23.6000           278.894       5.384
  23.6500           273.496       5.331
  23.7000           246.446       5.060
  23.7500           235.822       4.964
  23.8000           231.676       4.972
  23.8500           234.631       4.960
  23.9000           233.771       4.996
  23.9500           226.582       4.947
  24.0000           215.214       4.798
  24.0500           227.766       4.867
  24.1000           224.094       4.836
  24.1500           220.054       4.861
  24.2000           227.928       4.902
  24.2500           224.249       4.814
  24.3000           227.765       4.828
  24.3500           219.044       4.813
  24.4000           214.978       4.749
  24.4500           218.284       4.845
  24.5000           220.720       4.770
