# XYDATA igartucuel Sr2ScSbO6 @RT 2theta 
# INTER        1       1       0     0.100000
# TEMP       175.000      175.000      175.000
# d2b Date 13-Sep-08 Time 20:09:20 Run 051461 /d2b.cal 51452>51461
# d2b Date 13-Sep-08 Time 20:09:20 Run 051461 /d2b.cal 51452>51461
# Monitor/counts, Counting time/sec:        300000.00       300000.00
   0.0000             0.000       0.000
   0.0500             0.000       0.000
   0.1000            13.388      14.589
   0.1500            31.791      16.877
   0.2000            41.488      11.189
   0.2500            38.854      13.470
   0.3000            43.804      10.969
   0.3500            50.814      11.966
   0.4000            42.014       8.845
   0.4500            43.108       9.833
   0.5000            36.857       8.062
   0.5500            40.206       9.989
   0.6000            40.435       7.679
   0.6500            43.515       8.817
   0.7000            48.990       8.173
   0.7500            49.499       8.873
   0.8000            47.888       7.858
   0.8500            48.998       8.113
   0.9000            54.938       8.113
   0.9500            56.979       8.610
   1.0000            48.249       7.151
   1.0500            48.035       7.696
   1.1000            46.947       7.019
   1.1500            53.689       7.913
   1.2000            50.931       7.297
   1.2500            48.491       7.314
   1.3000            44.589       6.628
   1.3500            48.414       6.018
   1.4000            51.480       6.579
   1.4500            44.873       5.807
   1.5000            45.136       6.006
   1.5500            51.164       5.669
   1.6000            51.287       6.121
   1.6500            49.008       5.859
   1.7000            50.561       6.220
   1.7500            49.587       5.586
   1.8000            53.106       6.145
   1.8500            46.836       5.037
   1.9000            49.110       5.666
   1.9500            49.550       5.235
   2.0000            46.315       5.433
   2.0500            44.297       5.183
   2.1000            48.764       5.818
   2.1500            50.548       5.287
   2.2000            52.873       5.733
   2.2500            53.482       5.580
   2.3000            48.470       5.608
   2.3500            53.176       5.306
   2.4000            50.023       5.545
   2.4500            50.468       5.248
   2.5000            51.358       5.529
   2.5500            57.636       5.807
   2.6000            56.428       5.751
   2.6500            50.533       4.905
   2.7000            50.183       4.708
   2.7500            54.386       4.943
   2.8000            48.333       4.818
   2.8500            53.175       4.993
   2.9000            53.171       4.764
   2.9500            56.747       4.954
   3.0000            53.603       4.731
   3.0500            52.798       4.768
   3.1000            49.702       4.552
   3.1500            53.265       4.803
   3.2000            57.646       4.720
   3.2500            56.627       4.881
   3.3000            55.121       4.841
   3.3500            47.671       4.479
   3.4000            52.459       4.740
   3.4500            54.174       4.762
   3.5000            59.609       5.028
   3.5500            55.909       4.887
   3.6000            57.685       4.656
   3.6500            58.259       4.759
   3.7000            56.442       4.541
   3.7500            58.777       4.793
   3.8000            56.118       4.468
   3.8500            53.247       4.460
   3.9000            59.065       4.858
   3.9500            59.754       4.983
   4.0000            59.424       4.361
   4.0500            57.675       4.163
   4.1000            53.958       4.162
   4.1500            55.951       4.150
   4.2000            55.160       4.029
   4.2500            57.373       4.113
   4.3000            56.006       4.260
   4.3500            55.303       4.136
   4.4000            57.664       4.264
   4.4500            64.461       4.276
   4.5000            64.494       4.452
   4.5500            60.026       4.101
   4.6000            60.883       4.088
   4.6500            61.794       4.010
   4.7000            61.810       4.159
   4.7500            61.860       4.106
   4.8000            63.080       4.161
   4.8500            62.460       4.026
   4.9000            63.874       4.204
   4.9500            67.074       4.171
   5.0000            64.078       4.331
   5.0500            65.540       4.127
   5.1000            65.537       4.157
   5.1500            65.970       3.992
   5.2000            71.883       4.318
   5.2500            68.693       4.296
   5.3000            73.570       4.489
   5.3500            72.887       4.378
   5.4000            75.531       4.434
   5.4500            81.361       4.688
   5.5000            80.294       4.447
   5.5500            81.209       4.026
   5.6000            77.848       3.890
   5.6500            85.335       4.125
   5.7000            87.621       4.179
   5.7500            88.399       4.198
   5.8000            91.786       4.253
   5.8500            93.591       4.385
   5.9000            95.453       4.199
   5.9500            99.970       4.403
   6.0000           103.038       4.258
   6.0500           107.204       4.402
   6.1000           113.494       4.480
   6.1500           115.212       4.514
   6.2000           119.621       4.539
   6.2500           115.901       4.589
   6.3000           126.627       4.581
   6.3500           131.859       4.774
   6.4000           132.684       4.468
   6.4500           144.551       4.865
   6.5000           148.198       4.826
   6.5500           159.626       4.949
   6.6000           157.916       4.843
   6.6500           162.992       5.062
   6.7000           169.907       4.996
   6.7500           169.303       4.817
   6.8000           176.350       4.816
   6.8500           184.120       4.903
   6.9000           189.583       4.849
   6.9500           201.154       5.011
   7.0000           204.506       5.004
   7.0500           218.245       5.148
   7.1000           225.262       5.201
   7.1500           220.987       5.102
   7.2000           226.039       5.195
   7.2500           238.277       5.282
   7.3000           240.480       5.324
   7.3500           246.231       5.363
   7.4000           251.081       5.405
   7.4500           250.047       5.376
   7.5000           265.562       5.567
   7.5500           264.358       5.604
   7.6000           273.155       5.640
   7.6500           272.994       5.607
   7.7000           281.055       5.724
   7.7500           282.247       5.737
   7.8000           283.993       5.799
   7.8500           293.388       5.879
   7.9000           295.365       5.789
   7.9500           309.086       6.007
   8.0000           316.741       6.041
   8.0500           312.095       6.021
   8.1000           312.787       6.034
   8.1500           313.523       5.977
   8.2000           310.687       5.987
   8.2500           309.026       6.042
   8.3000           321.098       6.092
   8.3500           328.511       6.150
   8.4000           328.222       6.144
   8.4500           323.718       6.120
   8.5000           333.141       6.197
   8.5500           337.779       6.217
   8.6000           347.451       6.380
   8.6500           343.791       6.250
   8.7000           357.192       6.436
   8.7500           356.751       6.419
   8.8000           345.508       6.335
   8.8500           354.674       6.467
   8.9000           353.013       6.401
   8.9500           355.667       6.419
   9.0000           363.146       6.479
   9.0500           361.770       6.385
   9.1000           369.298       6.533
   9.1500           363.283       6.434
   9.2000           360.192       6.415
   9.2500           366.027       6.452
   9.3000           362.215       6.446
   9.3500           360.232       6.429
   9.4000           362.006       6.434
   9.4500           357.656       6.406
   9.5000           362.950       6.406
   9.5500           359.737       6.350
   9.6000           357.924       6.356
   9.6500           358.871       6.369
   9.7000           360.811       6.347
   9.7500           352.002       6.325
   9.8000           353.182       6.264
   9.8500           360.744       6.373
   9.9000           352.141       6.250
   9.9500           349.267       6.302
  10.0000           349.820       6.308
  10.0500           340.118       6.188
  10.1000           344.180       6.192
  10.1500           343.087       6.212
  10.2000           347.415       6.210
  10.2500           348.163       6.227
  10.3000           348.998       6.169
  10.3500           345.247       6.269
  10.4000           341.515       6.087
  10.4500           347.816       6.173
  10.5000           342.093       6.112
  10.5500           342.031       6.204
  10.6000           335.516       6.045
  10.6500           334.370       6.064
  10.7000           331.049       6.060
  10.7500           332.485       6.098
  10.8000           332.106       6.048
  10.8500           335.961       6.053
  10.9000           332.107       6.005
  10.9500           333.563       6.039
  11.0000           335.604       6.045
  11.0500           326.016       6.016
  11.1000           328.746       5.976
  11.1500           316.880       5.911
  11.2000           310.654       5.818
  11.2500           321.637       5.922
  11.3000           324.161       5.964
  11.3500           321.155       5.887
  11.4000           312.323       5.858
  11.4500           317.602       5.884
  11.5000           319.751       5.918
  11.5500           319.027       5.882
  11.6000           322.950       5.884
  11.6500           322.242       5.923
  11.7000           317.409       5.872
  11.7500           322.804       5.991
  11.8000           316.041       5.854
  11.8500           324.378       5.899
  11.9000           319.845       5.940
  11.9500           319.572       5.916
  12.0000           317.137       5.900
  12.0500           313.569       5.862
  12.1000           317.915       5.820
  12.1500           319.107       5.939
  12.2000           313.428       5.783
  12.2500           306.110       5.691
  12.3000           310.878       5.765
  12.3500           314.861       5.810
  12.4000           312.708       5.787
  12.4500           319.737       5.810
  12.5000           313.456       5.771
  12.5500           301.156       5.696
  12.6000           301.211       5.772
  12.6500           304.277       5.815
  12.7000           304.715       5.730
  12.7500           307.368       5.783
  12.8000           302.641       5.816
  12.8500           289.304       5.646
  12.9000           307.894       5.759
  12.9500           303.038       5.761
  13.0000           307.852       5.773
  13.0500           304.869       5.710
  13.1000           295.403       5.618
  13.1500           292.692       5.616
  13.2000           296.223       5.643
  13.2500           291.629       5.569
  13.3000           304.796       5.687
  13.3500           301.805       5.692
  13.4000           296.442       5.616
  13.4500           300.687       5.661
  13.5000           307.887       5.733
  13.5500           304.251       5.686
  13.6000           291.144       5.570
  13.6500           295.195       5.628
  13.7000           296.983       5.666
  13.7500           297.340       5.805
  13.8000           293.705       5.698
  13.8500           284.044       5.685
  13.9000           290.508       5.592
  13.9500           295.742       5.588
  14.0000           285.296       5.585
  14.0500           288.259       5.650
  14.1000           295.238       5.796
  14.1500           296.294       5.632
  14.2000           287.070       5.527
  14.2500           280.956       5.474
  14.3000           287.900       5.496
  14.3500           286.049       5.564
  14.4000           298.485       5.635
  14.4500           296.162       5.584
  14.5000           286.375       5.558
  14.5500           281.606       5.576
  14.6000           287.670       5.638
  14.6500           288.031       5.611
  14.7000           293.209       5.620
  14.7500           288.001       5.533
  14.8000           301.047       5.594
  14.8500           292.688       5.519
  14.9000           288.876       5.548
  14.9500           288.916       5.531
  15.0000           287.099       5.517
  15.0500           290.331       5.517
  15.1000           296.557       5.572
  15.1500           303.663       5.634
  15.2000           301.724       5.671
  15.2500           292.785       5.565
  15.3000           299.056       5.593
  15.3500           288.864       5.533
  15.4000           282.733       5.468
  15.4500           287.056       5.544
  15.5000           281.675       5.490
  15.5500           285.682       5.575
  15.6000           280.531       5.431
  15.6500           282.649       5.504
  15.7000           281.473       5.493
  15.7500           283.567       5.419
  15.8000           287.004       5.473
  15.8500           284.153       5.494
  15.9000           289.575       5.511
  15.9500           281.007       5.420
  16.0000           286.955       5.491
  16.0500           279.615       5.508
  16.1000           287.602       5.510
  16.1500           279.752       5.474
  16.2000           268.222       5.495
  16.2500           279.081       5.449
  16.3000           277.496       5.409
  16.3500           281.741       5.458
  16.4000           287.067       5.521
  16.4500           276.119       5.462
  16.5000           281.534       5.472
  16.5500           278.129       5.411
  16.6000           277.437       5.404
  16.6500           278.485       5.398
  16.7000           272.552       5.354
  16.7500           277.903       5.387
  16.8000           273.111       5.342
  16.8500           270.810       5.331
  16.9000           273.090       5.331
  16.9500           263.785       5.251
  17.0000           269.234       5.297
  17.0500           274.522       5.372
  17.1000           272.024       5.301
  17.1500           264.483       5.242
  17.2000           263.382       5.233
  17.2500           268.334       5.309
  17.3000           274.195       5.340
  17.3500           271.166       5.338
  17.4000           266.783       5.302
  17.4500           264.970       5.227
  17.5000           268.758       5.345
  17.5500           267.697       5.282
  17.6000           267.541       5.286
  17.6500           274.587       5.338
  17.7000           268.932       5.331
  17.7500           271.949       5.349
  17.8000           271.682       5.288
  17.8500           277.105       5.324
  17.9000           270.156       5.264
  17.9500           265.574       5.270
  18.0000           267.870       5.257
  18.0500           263.713       5.250
  18.1000           264.800       5.270
  18.1500           269.816       5.293
  18.2000           265.871       5.240
  18.2500           267.678       5.293
  18.3000           267.276       5.263
  18.3500           268.221       5.359
  18.4000           270.012       5.285
  18.4500           265.450       5.209
  18.5000           272.699       5.404
  18.5500           274.000       5.378
  18.6000           270.088       5.324
  18.6500           269.299       5.311
  18.7000           282.864       5.392
  18.7500           273.519       5.354
  18.8000           276.853       5.410
  18.8500           277.776       5.427
  18.9000           268.487       5.337
  18.9500           276.774       5.424
  19.0000           278.516       5.400
  19.0500           280.573       5.468
  19.1000           286.106       5.466
  19.1500           279.845       5.428
  19.2000           290.806       5.503
  19.2500           304.600       5.640
  19.3000           298.411       5.574
  19.3500           294.345       5.571
  19.4000           305.364       5.617
  19.4500           320.012       5.767
  19.5000           323.128       5.788
  19.5500           347.311       5.960
  19.6000           354.295       6.041
  19.6500           375.484       6.254
  19.7000           387.545       6.505
  19.7500           396.694       6.387
  19.8000           424.073       6.573
  19.8500           423.729       6.565
  19.9000           412.817       6.488
  19.9500           403.034       6.446
  20.0000           388.966       6.322
  20.0500           377.177       6.242
  20.1000           353.567       6.087
  20.1500           342.371       5.963
  20.2000           322.191       5.838
  20.2500           303.796       5.735
  20.3000           305.468       5.676
  20.3500           285.010       5.419
  20.4000           284.775       5.406
  20.4500           274.577       5.334
  20.5000           271.578       5.358
  20.5500           266.290       5.416
  20.6000           267.395       5.269
  20.6500           259.381       5.353
  20.7000           260.415       5.270
  20.7500           260.415       5.344
  20.8000           256.098       5.242
  20.8500           263.698       5.248
  20.9000           254.912       5.142
  20.9500           253.162       5.145
  21.0000           267.343       5.280
  21.0500           264.273       5.251
  21.1000           260.686       5.202
  21.1500           261.358       5.188
  21.2000           266.223       5.253
  21.2500           264.546       5.230
  21.3000           260.962       5.215
  21.3500           262.906       5.256
  21.4000           274.692       5.375
  21.4500           263.036       5.258
  21.5000           267.092       5.269
  21.5500           264.252       5.209
  21.6000           269.551       5.302
  21.6500           278.683       5.365
  21.7000           272.278       5.291
  21.7500           275.199       5.299
  21.8000           276.969       5.437
  21.8500           284.046       5.405
  21.9000           283.718       5.400
  21.9500           296.001       5.509
  22.0000           297.542       5.542
  22.0500           310.749       5.702
  22.1000           315.934       5.677
  22.1500           326.380       5.763
  22.2000           339.448       5.965
  22.2500           353.909       6.017
  22.3000           372.728       6.183
  22.3500           396.358       6.350
  22.4000           424.244       6.596
  22.4500           455.360       6.817
  22.5000           501.538       7.140
  22.5500           558.667       7.531
  22.6000           622.115       7.945
  22.6500           719.226       8.538
  22.7000           819.318       9.110
  22.7500           924.945       9.674
  22.8000          1038.041      10.245
  22.8500          1130.427      10.693
  22.9000          1193.276      10.986
  22.9500          1227.388      11.138
  23.0000          1195.212      10.995
  23.0500          1144.011      10.757
  23.1000          1061.428      10.364
  23.1500           961.973       9.868
  23.2000           844.972       9.256
  23.2500           735.793       8.636
  23.3000           633.837       8.039
  23.3500           547.663       7.476
  23.4000           479.033       7.021
  23.4500           428.162       6.624
  23.5000           389.962       6.307
  23.5500           355.296       6.026
  23.6000           323.149       5.780
  23.6500           303.652       5.607
  23.7000           288.887       5.487
  23.7500           271.455       5.303
  23.8000           259.922       5.157
  23.8500           252.711       5.112
  23.9000           247.644       5.070
  23.9500           244.345       5.048
  24.0000           245.833       5.190
  24.0500           242.353       5.057
  24.1000           244.509       5.030
  24.1500           248.854       5.079
  24.2000           256.762       5.136
  24.2500           252.702       5.201
  24.3000           250.342       5.092
  24.3500           253.720       5.180
  24.4000           246.284       5.104
  24.4500           246.740       5.072
  24.5000           243.103       5.032
