# XYDATA igartucuel Sr2ScSbO6 @177C (450K) 2theta 
# INTER        1       1       0     0.100000
# TEMP       177.000      177.000      177.000
# d2b Date 12-Sep-08 Time 18:41:39 Run 051310 /d2bcal072.2d 51301>51310
# d2b Date 12-Sep-08 Time 18:41:39 Run 051310 /d2bcal072.2d 51301>51310
# Monitor/counts, Counting time/sec:        225000.00       225000.00
   0.0000             0.000       0.000
   0.0500             0.000       0.000
   0.1000             9.284      14.880
   0.1500            29.667      16.884
   0.2000            21.042       8.646
   0.2500            46.021      13.947
   0.3000            39.250      10.271
   0.3500            34.701       9.607
   0.4000            33.030       7.815
   0.4500            28.332       9.318
   0.5000            34.524       7.604
   0.5500            46.698       9.573
   0.6000            37.152       7.656
   0.6500            35.473       7.843
   0.7000            29.899       7.005
   0.7500            32.337       7.712
   0.8000            33.131       6.619
   0.8500            40.878       7.849
   0.9000            39.526       6.661
   0.9500            41.791       7.309
   1.0000            31.390       6.178
   1.0500            35.947       6.610
   1.1000            36.104       6.208
   1.1500            29.277       5.948
   1.2000            35.721       6.552
   1.2500            33.708       6.073
   1.3000            31.870       5.170
   1.3500            32.909       4.861
   1.4000            32.086       5.308
   1.4500            27.486       4.357
   1.5000            32.137       4.847
   1.5500            30.083       4.476
   1.6000            31.650       4.785
   1.6500            32.646       4.900
   1.7000            35.847       5.299
   1.7500            32.394       4.741
   1.8000            39.401       5.005
   1.8500            35.147       4.695
   1.9000            30.712       4.509
   1.9500            33.836       4.770
   2.0000            29.440       4.602
   2.0500            33.389       4.632
   2.1000            32.798       4.850
   2.1500            38.287       4.947
   2.2000            40.961       5.066
   2.2500            40.258       5.039
   2.3000            34.829       4.828
   2.3500            36.197       4.307
   2.4000            35.716       4.566
   2.4500            38.196       4.664
   2.5000            36.935       4.727
   2.5500            40.703       5.015
   2.6000            40.419       5.182
   2.6500            36.434       4.266
   2.7000            37.068       3.976
   2.7500            35.349       4.065
   2.8000            35.714       4.016
   2.8500            38.061       4.162
   2.9000            37.295       3.857
   2.9500            37.215       4.004
   3.0000            34.920       3.892
   3.0500            35.429       4.004
   3.1000            38.498       4.097
   3.1500            36.053       3.971
   3.2000            35.900       3.845
   3.2500            36.843       3.873
   3.3000            34.275       3.887
   3.3500            34.979       3.814
   3.4000            36.029       3.645
   3.4500            38.396       3.779
   3.5000            41.674       3.726
   3.5500            37.556       4.028
   3.6000            39.022       3.910
   3.6500            38.947       4.056
   3.7000            39.169       3.807
   3.7500            38.268       3.869
   3.8000            40.267       3.693
   3.8500            40.342       3.771
   3.9000            40.377       3.890
   3.9500            39.733       4.000
   4.0000            39.518       3.553
   4.0500            38.688       3.384
   4.1000            39.030       3.502
   4.1500            39.539       3.583
   4.2000            35.696       3.620
   4.2500            38.999       3.454
   4.3000            43.253       3.691
   4.3500            39.569       3.568
   4.4000            41.587       3.565
   4.4500            39.083       3.468
   4.5000            42.021       3.477
   4.5500            42.508       3.382
   4.6000            44.956       3.562
   4.6500            41.181       3.352
   4.7000            40.917       3.399
   4.7500            43.040       3.445
   4.8000            44.553       3.516
   4.8500            46.812       3.489
   4.9000            45.883       3.661
   4.9500            44.203       3.387
   5.0000            45.923       3.543
   5.0500            47.047       3.435
   5.1000            48.728       3.597
   5.1500            47.349       3.669
   5.2000            50.167       3.697
   5.2500            50.326       3.680
   5.3000            49.038       3.700
   5.3500            50.643       3.661
   5.4000            56.149       3.894
   5.4500            61.265       4.095
   5.5000            62.764       3.960
   5.5500            64.011       3.625
   5.6000            60.698       3.413
   5.6500            60.471       3.517
   5.7000            66.196       3.557
   5.7500            68.275       3.686
   5.8000            72.865       3.773
   5.8500            71.805       3.821
   5.9000            77.734       3.739
   5.9500            80.129       3.832
   6.0000            79.736       3.764
   6.0500            90.988       3.991
   6.1000            95.575       3.993
   6.1500            97.553       4.204
   6.2000           101.546       4.064
   6.2500           107.522       4.102
   6.3000           109.215       4.132
   6.3500           114.622       4.161
   6.4000           116.084       4.236
   6.4500           121.301       4.394
   6.5000           129.342       4.371
   6.5500           132.195       4.552
   6.6000           140.105       4.543
   6.6500           146.353       4.646
   6.7000           146.902       4.550
   6.7500           154.941       4.455
   6.8000           162.197       4.536
   6.8500           159.344       4.446
   6.9000           168.690       4.517
   6.9500           171.980       4.593
   7.0000           177.179       4.602
   7.0500           178.321       4.679
   7.1000           182.519       4.660
   7.1500           186.052       4.695
   7.2000           192.616       4.766
   7.2500           199.355       4.860
   7.3000           204.982       5.019
   7.3500           199.877       4.873
   7.4000           209.151       4.957
   7.4500           217.461       5.122
   7.5000           227.538       5.198
   7.5500           225.578       5.122
   7.6000           228.334       5.200
   7.6500           229.068       5.158
   7.7000           227.590       5.145
   7.7500           230.594       5.214
   7.8000           241.949       5.283
   7.8500           249.134       5.395
   7.9000           248.571       5.352
   7.9500           256.481       5.535
   8.0000           258.867       5.493
   8.0500           256.979       5.554
   8.1000           253.639       5.507
   8.1500           258.363       5.469
   8.2000           270.168       5.644
   8.2500           279.723       5.701
   8.3000           281.451       5.735
   8.3500           275.088       5.688
   8.4000           279.371       5.686
   8.4500           278.672       5.757
   8.5000           279.817       5.732
   8.5500           289.165       5.800
   8.6000           288.387       5.847
   8.6500           291.571       5.794
   8.7000           299.183       5.950
   8.7500           293.583       5.840
   8.8000           301.507       5.962
   8.8500           304.419       6.000
   8.9000           294.486       5.854
   8.9500           304.266       5.907
   9.0000           308.782       6.040
   9.0500           307.332       5.944
   9.1000           307.848       6.003
   9.1500           299.114       5.897
   9.2000           309.859       5.981
   9.2500           311.367       6.001
   9.3000           318.581       6.016
   9.3500           311.626       6.033
   9.4000           300.382       5.856
   9.4500           304.355       5.975
   9.5000           304.793       6.000
   9.5500           297.337       5.839
   9.6000           297.903       5.897
   9.6500           300.192       5.843
   9.7000           302.537       5.796
   9.7500           305.084       5.921
   9.8000           300.531       5.853
   9.8500           306.370       5.886
   9.9000           300.775       5.832
   9.9500           304.609       5.852
  10.0000           293.608       5.719
  10.0500           298.375       5.772
  10.1000           300.173       5.797
  10.1500           303.007       5.839
  10.2000           302.993       5.800
  10.2500           298.411       5.759
  10.3000           289.967       5.666
  10.3500           295.708       5.720
  10.4000           293.730       5.744
  10.4500           294.373       5.801
  10.5000           300.397       5.757
  10.5500           300.856       5.788
  10.6000           300.584       5.734
  10.6500           297.724       5.751
  10.7000           285.921       5.727
  10.7500           290.012       5.686
  10.8000           289.130       5.648
  10.8500           284.151       5.594
  10.9000           283.194       5.597
  10.9500           282.912       5.540
  11.0000           280.793       5.527
  11.0500           289.797       5.617
  11.1000           283.982       5.606
  11.1500           285.366       5.569
  11.2000           289.846       5.614
  11.2500           295.087       5.644
  11.3000           284.158       5.601
  11.3500           280.564       5.534
  11.4000           282.578       5.580
  11.4500           278.047       5.573
  11.5000           290.149       5.701
  11.5500           285.005       5.660
  11.6000           272.352       5.603
  11.6500           281.308       5.588
  11.7000           284.276       5.558
  11.7500           278.241       5.522
  11.8000           274.524       5.519
  11.8500           275.945       5.564
  11.9000           273.120       5.490
  11.9500           278.083       5.549
  12.0000           283.624       5.538
  12.0500           282.053       5.556
  12.1000           272.284       5.569
  12.1500           270.797       5.452
  12.2000           275.161       5.437
  12.2500           275.894       5.441
  12.3000           273.659       5.494
  12.3500           274.741       5.532
  12.4000           267.801       5.429
  12.4500           264.346       5.454
  12.5000           266.877       5.366
  12.5500           274.979       5.409
  12.6000           280.245       5.509
  12.6500           266.851       5.450
  12.7000           269.297       5.520
  12.7500           269.436       5.472
  12.8000           274.641       5.559
  12.8500           270.031       5.482
  12.9000           269.575       5.433
  12.9500           266.899       5.461
  13.0000           267.762       5.434
  13.0500           251.912       5.307
  13.1000           257.412       5.276
  13.1500           251.442       5.227
  13.2000           258.442       5.273
  13.2500           259.758       5.331
  13.3000           264.220       5.430
  13.3500           259.466       5.352
  13.4000           253.353       5.282
  13.4500           260.679       5.341
  13.5000           254.515       5.377
  13.5500           252.429       5.319
  13.6000           255.145       5.355
  13.6500           253.029       5.254
  13.7000           252.558       5.248
  13.7500           260.614       5.326
  13.8000           260.191       5.296
  13.8500           260.819       5.270
  13.9000           258.584       5.254
  13.9500           252.594       5.155
  14.0000           249.955       5.151
  14.0500           255.491       5.262
  14.1000           253.886       5.257
  14.1500           255.368       5.280
  14.2000           260.328       5.222
  14.2500           265.351       5.316
  14.3000           255.782       5.342
  14.3500           256.104       5.337
  14.4000           262.294       5.359
  14.4500           256.737       5.245
  14.5000           260.592       5.362
  14.5500           261.573       5.319
  14.6000           260.333       5.302
  14.6500           258.687       5.212
  14.7000           261.396       5.235
  14.7500           266.394       5.265
  14.8000           262.726       5.272
  14.8500           252.997       5.293
  14.9000           256.361       5.241
  14.9500           259.274       5.280
  15.0000           265.028       5.334
  15.0500           257.506       5.251
  15.1000           260.170       5.267
  15.1500           261.656       5.297
  15.2000           258.559       5.285
  15.2500           255.478       5.233
  15.3000           247.992       5.193
  15.3500           238.936       5.099
  15.4000           247.162       5.169
  15.4500           248.101       5.108
  15.5000           255.282       5.184
  15.5500           253.417       5.175
  15.6000           249.519       5.148
  15.6500           249.683       5.143
  15.7000           249.530       5.123
  15.7500           247.415       5.106
  15.8000           246.976       5.166
  15.8500           250.126       5.112
  15.9000           242.435       5.025
  15.9500           243.056       5.045
  16.0000           244.908       5.115
  16.0500           251.735       5.126
  16.1000           249.879       5.129
  16.1500           244.825       5.086
  16.2000           249.498       5.172
  16.2500           254.483       5.154
  16.3000           249.007       5.187
  16.3500           247.658       5.184
  16.4000           243.608       5.097
  16.4500           244.110       5.101
  16.5000           247.661       5.088
  16.5500           242.770       5.210
  16.6000           242.864       5.057
  16.6500           246.478       5.069
  16.7000           246.339       5.100
  16.7500           241.276       5.063
  16.8000           239.567       5.009
  16.8500           244.501       5.048
  16.9000           249.224       5.155
  16.9500           251.017       5.143
  17.0000           246.320       5.142
  17.0500           242.354       5.064
  17.1000           236.194       4.995
  17.1500           243.644       5.035
  17.2000           246.702       5.089
  17.2500           235.405       4.996
  17.3000           239.830       5.008
  17.3500           237.662       4.987
  17.4000           234.801       4.928
  17.4500           238.839       4.985
  17.5000           238.012       5.008
  17.5500           232.327       4.979
  17.6000           240.201       5.070
  17.6500           238.766       5.018
  17.7000           241.956       5.045
  17.7500           247.131       5.060
  17.8000           245.001       5.176
  17.8500           234.722       5.093
  17.9000           231.840       5.050
  17.9500           234.947       4.955
  18.0000           236.146       5.067
  18.0500           242.094       5.113
  18.1000           242.473       5.097
  18.1500           238.856       5.064
  18.2000           232.916       5.098
  18.2500           235.922       5.094
  18.3000           243.939       5.104
  18.3500           245.407       5.072
  18.4000           244.366       5.077
  18.4500           245.581       5.079
  18.5000           243.521       5.074
  18.5500           241.678       5.031
  18.6000           237.540       5.010
  18.6500           236.389       5.021
  18.7000           241.054       5.035
  18.7500           243.442       5.029
  18.8000           234.267       4.973
  18.8500           244.637       5.151
  18.9000           253.865       5.137
  18.9500           249.458       5.160
  19.0000           259.526       5.291
  19.0500           260.278       5.226
  19.1000           264.431       5.247
  19.1500           248.423       5.136
  19.2000           266.076       5.375
  19.2500           264.178       5.321
  19.3000           266.836       5.312
  19.3500           276.846       5.388
  19.4000           280.192       5.374
  19.4500           292.918       5.507
  19.5000           307.028       5.690
  19.5500           313.962       5.788
  19.6000           331.762       5.853
  19.6500           334.610       5.844
  19.7000           356.822       6.056
  19.7500           380.347       6.315
  19.8000           374.115       6.296
  19.8500           378.916       6.257
  19.9000           372.629       6.225
  19.9500           375.532       6.284
  20.0000           355.173       6.069
  20.0500           342.355       5.924
  20.1000           321.844       5.760
  20.1500           306.679       5.643
  20.2000           306.561       5.606
  20.2500           287.870       5.457
  20.3000           282.858       5.413
  20.3500           270.242       5.295
  20.4000           257.795       5.190
  20.4500           253.524       5.257
  20.5000           248.431       5.137
  20.5500           242.059       5.014
  20.6000           248.964       5.087
  20.6500           241.489       5.084
  20.7000           240.799       5.005
  20.7500           239.255       5.085
  20.8000           240.480       4.997
  20.8500           227.277       4.889
  20.9000           234.520       4.988
  20.9500           234.208       4.955
  21.0000           229.816       4.951
  21.0500           234.032       4.951
  21.1000           236.221       5.029
  21.1500           237.756       4.993
  21.2000           234.530       5.022
  21.2500           236.447       4.962
  21.3000           236.929       4.963
  21.3500           239.017       5.061
  21.4000           240.520       5.018
  21.4500           233.845       4.967
  21.5000           229.105       4.929
  21.5500           239.467       4.940
  21.6000           235.851       4.952
  21.6500           228.549       4.862
  21.7000           238.985       5.081
  21.7500           239.397       5.071
  21.8000           244.820       5.020
  21.8500           252.900       5.177
  21.9000           257.869       5.204
  21.9500           265.857       5.236
  22.0000           265.915       5.280
  22.0500           271.956       5.311
  22.1000           287.725       5.452
  22.1500           301.248       5.574
  22.2000           310.120       5.650
  22.2500           331.282       5.830
  22.3000           343.126       5.923
  22.3500           364.839       6.091
  22.4000           387.142       6.277
  22.4500           423.195       6.605
  22.5000           470.664       6.925
  22.5500           518.908       7.263
  22.6000           576.510       7.658
  22.6500           644.208       8.097
  22.7000           718.138       8.543
  22.7500           808.617       9.044
  22.8000           915.190       9.621
  22.8500           997.432      10.045
  22.9000          1050.514      10.311
  22.9500          1050.023      10.304
  23.0000          1029.254      10.206
  23.0500           978.769       9.951
  23.1000           895.076       9.527
  23.1500           807.537       9.059
  23.2000           744.096       8.717
  23.2500           656.078       8.156
  23.3000           562.273       7.556
  23.3500           502.632       7.156
  23.4000           440.591       6.732
  23.4500           389.256       6.310
  23.5000           358.546       6.035
  23.5500           319.974       5.780
  23.6000           289.357       5.505
  23.6500           276.600       5.419
  23.7000           265.277       5.258
  23.7500           246.787       5.097
  23.8000           237.698       5.019
  23.8500           221.806       4.813
  23.9000           221.766       4.839
  23.9500           226.028       4.821
  24.0000           217.709       4.781
  24.0500           220.509       4.777
  24.1000           220.427       4.788
  24.1500           225.381       4.882
  24.2000           215.679       4.773
  24.2500           220.456       4.824
  24.3000           219.600       4.897
  24.3500           215.456       4.792
  24.4000           222.050       4.824
  24.4500           215.531       4.875
  24.5000           218.336       4.807
